#1801 angles,  1 tensor ranks for 0=projectile
@subtitle   "13C(9Be,9Be)13C EL @70MeV;"                                                    
@legend ON
@legend x1 0.2
@legend y1 0.8
@g0 type LOGY
@yaxis ticklabel format power
@xaxis label "Scattering angle (degrees)"
@yaxis label "Cross section (mb/sr)"
@legend string   0 "Partition=  1 Excit=  1 near/far= 1"
#legend string   0 "Lab energy =   70.0000"
@s0 linestyle   1
#  Theta       sigma       iT11        T20         T21         T22         Kyy for projectile
  0.1000E-01  0.1570E+17
  0.1000      0.1569E+13
  0.2000      0.9814E+11
  0.3000      0.1941E+11
  0.4000      0.6136E+10
  0.5000      0.2507E+10
  0.6000      0.1204E+10
  0.7000      0.6481E+09
  0.8000      0.3793E+09
  0.9000      0.2369E+09
   1.000      0.1558E+09
   1.100      0.1069E+09
   1.200      0.7600E+08
   1.300      0.5561E+08
   1.400      0.4170E+08
   1.500      0.3192E+08
   1.600      0.2487E+08
   1.700      0.1967E+08
   1.800      0.1576E+08
   1.900      0.1277E+08
   2.000      0.1044E+08
   2.100      0.8615E+07
   2.200      0.7159E+07
   2.300      0.5988E+07
   2.400      0.5038E+07
   2.500      0.4261E+07
   2.600      0.3620E+07
   2.700      0.3090E+07
   2.800      0.2648E+07
   2.900      0.2277E+07
   3.000      0.1965E+07
   3.100      0.1702E+07
   3.200      0.1479E+07
   3.300      0.1288E+07
   3.400      0.1126E+07
   3.500      0.9872E+06
   3.600      0.8679E+06
   3.700      0.7653E+06
   3.800      0.6767E+06
   3.900      0.6001E+06
   4.000      0.5337E+06
   4.100      0.4760E+06
   4.200      0.4258E+06
   4.300      0.3820E+06
   4.400      0.3437E+06
   4.500      0.3101E+06
   4.600      0.2806E+06
   4.700      0.2547E+06
   4.800      0.2318E+06
   4.900      0.2115E+06
   5.000      0.1936E+06
   5.100      0.1776E+06
   5.200      0.1634E+06
   5.300      0.1507E+06
   5.400      0.1393E+06
   5.500      0.1290E+06
   5.600      0.1198E+06
   5.700      0.1114E+06
   5.800      0.1038E+06
   5.900      0.9692E+05
   6.000      0.9062E+05
   6.100      0.8485E+05
   6.200      0.7955E+05
   6.300      0.7467E+05
   6.400      0.7016E+05
   6.500      0.6598E+05
   6.600      0.6210E+05
   6.700      0.5848E+05
   6.800      0.5510E+05
   6.900      0.5194E+05
   7.000      0.4898E+05
   7.100      0.4620E+05
   7.200      0.4358E+05
   7.300      0.4111E+05
   7.400      0.3878E+05
   7.500      0.3658E+05
   7.600      0.3450E+05
   7.700      0.3253E+05
   7.800      0.3066E+05
   7.900      0.2889E+05
   8.000      0.2721E+05
   8.100      0.2562E+05
   8.200      0.2411E+05
   8.300      0.2268E+05
   8.400      0.2132E+05
   8.500      0.2003E+05
   8.600      0.1881E+05
   8.700      0.1765E+05
   8.800      0.1655E+05
   8.900      0.1551E+05
   9.000      0.1453E+05
   9.100      0.1360E+05
   9.200      0.1273E+05
   9.300      0.1190E+05
   9.400      0.1112E+05
   9.500      0.1038E+05
   9.600       9690.    
   9.700       9040.    
   9.800       8430.    
   9.900       7858.    
   10.00       7322.    
   10.10       6821.    
   10.20       6353.    
   10.30       5917.    
   10.40       5511.    
   10.50       5134.    
   10.60       4784.    
   10.70       4460.    
   10.80       4160.    
   10.90       3884.    
   11.00       3629.    
   11.10       3395.    
   11.20       3181.    
   11.30       2985.    
   11.40       2806.    
   11.50       2643.    
   11.60       2495.    
   11.70       2361.    
   11.80       2239.    
   11.90       2130.    
   12.00       2032.    
   12.10       1944.    
   12.20       1866.    
   12.30       1796.    
   12.40       1734.    
   12.50       1679.    
   12.60       1631.    
   12.70       1588.    
   12.80       1550.    
   12.90       1517.    
   13.00       1489.    
   13.10       1463.    
   13.20       1441.    
   13.30       1421.    
   13.40       1403.    
   13.50       1388.    
   13.60       1373.    
   13.70       1360.    
   13.80       1348.    
   13.90       1336.    
   14.00       1325.    
   14.10       1313.    
   14.20       1302.    
   14.30       1290.    
   14.40       1278.    
   14.50       1265.    
   14.60       1251.    
   14.70       1237.    
   14.80       1222.    
   14.90       1206.    
   15.00       1190.    
   15.10       1172.    
   15.20       1153.    
   15.30       1133.    
   15.40       1112.    
   15.50       1091.    
   15.60       1068.    
   15.70       1044.    
   15.80       1020.    
   15.90       994.8    
   16.00       968.8    
   16.10       942.2    
   16.20       914.9    
   16.30       887.1    
   16.40       858.9    
   16.50       830.2    
   16.60       801.2    
   16.70       772.0    
   16.80       742.6    
   16.90       713.1    
   17.00       683.7    
   17.10       654.3    
   17.20       625.1    
   17.30       596.1    
   17.40       567.4    
   17.50       539.0    
   17.60       511.1    
   17.70       483.7    
   17.80       456.9    
   17.90       430.7    
   18.00       405.2    
   18.10       380.4    
   18.20       356.4    
   18.30       333.2    
   18.40       310.8    
   18.50       289.3    
   18.60       268.8    
   18.70       249.1    
   18.80       230.5    
   18.90       212.8    
   19.00       196.1    
   19.10       180.4    
   19.20       165.8    
   19.30       152.1    
   19.40       139.4    
   19.50       127.8    
   19.60       117.1    
   19.70       107.4    
   19.80       98.60    
   19.90       90.78    
   20.00       83.87    
   20.10       77.86    
   20.20       72.71    
   20.30       68.40    
   20.40       64.88    
   20.50       62.14    
   20.60       60.13    
   20.70       58.81    
   20.80       58.16    
   20.90       58.12    
   21.00       58.66    
   21.10       59.75    
   21.20       61.33    
   21.30       63.37    
   21.40       65.82    
   21.50       68.65    
   21.60       71.81    
   21.70       75.26    
   21.80       78.97    
   21.90       82.88    
   22.00       86.97    
   22.10       91.20    
   22.20       95.52    
   22.30       99.90    
   22.40       104.3    
   22.50       108.7    
   22.60       113.1    
   22.70       117.4    
   22.80       121.6    
   22.90       125.7    
   23.00       129.6    
   23.10       133.3    
   23.20       136.9    
   23.30       140.3    
   23.40       143.4    
   23.50       146.2    
   23.60       148.8    
   23.70       151.2    
   23.80       153.2    
   23.90       155.0    
   24.00       156.4    
   24.10       157.5    
   24.20       158.4    
   24.30       158.9    
   24.40       159.1    
   24.50       159.0    
   24.60       158.5    
   24.70       157.8    
   24.80       156.8    
   24.90       155.4    
   25.00       153.8    
   25.10       151.9    
   25.20       149.8    
   25.30       147.3    
   25.40       144.7    
   25.50       141.8    
   25.60       138.7    
   25.70       135.3    
   25.80       131.8    
   25.90       128.2    
   26.00       124.3    
   26.10       120.3    
   26.20       116.2    
   26.30       112.0    
   26.40       107.7    
   26.50       103.3    
   26.60       98.87    
   26.70       94.38    
   26.80       89.87    
   26.90       85.34    
   27.00       80.82    
   27.10       76.32    
   27.20       71.86    
   27.30       67.44    
   27.40       63.09    
   27.50       58.81    
   27.60       54.63    
   27.70       50.54    
   27.80       46.57    
   27.90       42.72    
   28.00       39.00    
   28.10       35.43    
   28.20       32.00    
   28.30       28.74    
   28.40       25.64    
   28.50       22.71    
   28.60       19.96    
   28.70       17.38    
   28.80       14.99    
   28.90       12.79    
   29.00       10.78    
   29.10       8.953    
   29.20       7.319    
   29.30       5.874    
   29.40       4.618    
   29.50       3.549    
   29.60       2.664    
   29.70       1.960    
   29.80       1.433    
   29.90       1.080    
   30.00      0.8950    
   30.10      0.8727    
   30.20       1.007    
   30.30       1.292    
   30.40       1.721    
   30.50       2.286    
   30.60       2.980    
   30.70       3.796    
   30.80       4.724    
   30.90       5.758    
   31.00       6.888    
   31.10       8.105    
   31.20       9.402    
   31.30       10.77    
   31.40       12.20    
   31.50       13.68    
   31.60       15.20    
   31.70       16.76    
   31.80       18.34    
   31.90       19.95    
   32.00       21.56    
   32.10       23.17    
   32.20       24.78    
   32.30       26.37    
   32.40       27.94    
   32.50       29.48    
   32.60       30.99    
   32.70       32.45    
   32.80       33.86    
   32.90       35.22    
   33.00       36.52    
   33.10       37.75    
   33.20       38.92    
   33.30       40.01    
   33.40       41.02    
   33.50       41.95    
   33.60       42.80    
   33.70       43.56    
   33.80       44.23    
   33.90       44.81    
   34.00       45.30    
   34.10       45.70    
   34.20       46.00    
   34.30       46.21    
   34.40       46.32    
   34.50       46.34    
   34.60       46.27    
   34.70       46.11    
   34.80       45.86    
   34.90       45.53    
   35.00       45.11    
   35.10       44.60    
   35.20       44.02    
   35.30       43.36    
   35.40       42.63    
   35.50       41.84    
   35.60       40.97    
   35.70       40.04    
   35.80       39.06    
   35.90       38.03    
   36.00       36.94    
   36.10       35.81    
   36.20       34.64    
   36.30       33.44    
   36.40       32.20    
   36.50       30.94    
   36.60       29.66    
   36.70       28.37    
   36.80       27.06    
   36.90       25.74    
   37.00       24.42    
   37.10       23.11    
   37.20       21.79    
   37.30       20.49    
   37.40       19.21    
   37.50       17.94    
   37.60       16.69    
   37.70       15.48    
   37.80       14.29    
   37.90       13.13    
   38.00       12.01    
   38.10       10.92    
   38.20       9.884    
   38.30       8.888    
   38.40       7.937    
   38.50       7.036    
   38.60       6.185    
   38.70       5.386    
   38.80       4.640    
   38.90       3.949    
   39.00       3.314    
   39.10       2.735    
   39.20       2.214    
   39.30       1.750    
   39.40       1.343    
   39.50      0.9942    
   39.60      0.7022    
   39.70      0.4668    
   39.80      0.2875    
   39.90      0.1632    
   40.00      0.9308E-01
   40.10      0.7577E-01
   40.20      0.1099    
   40.30      0.1941    
   40.40      0.3265    
   40.50      0.5054    
   40.60      0.7288    
   40.70      0.9946    
   40.80       1.301    
   40.90       1.645    
   41.00       2.025    
   41.10       2.438    
   41.20       2.883    
   41.30       3.355    
   41.40       3.853    
   41.50       4.374    
   41.60       4.916    
   41.70       5.475    
   41.80       6.050    
   41.90       6.637    
   42.00       7.234    
   42.10       7.838    
   42.20       8.447    
   42.30       9.058    
   42.40       9.669    
   42.50       10.28    
   42.60       10.88    
   42.70       11.47    
   42.80       12.06    
   42.90       12.63    
   43.00       13.19    
   43.10       13.74    
   43.20       14.26    
   43.30       14.77    
   43.40       15.26    
   43.50       15.72    
   43.60       16.16    
   43.70       16.57    
   43.80       16.96    
   43.90       17.32    
   44.00       17.65    
   44.10       17.95    
   44.20       18.22    
   44.30       18.46    
   44.40       18.67    
   44.50       18.85    
   44.60       18.99    
   44.70       19.11    
   44.80       19.19    
   44.90       19.24    
   45.00       19.26    
   45.10       19.25    
   45.20       19.21    
   45.30       19.13    
   45.40       19.03    
   45.50       18.90    
   45.60       18.74    
   45.70       18.55    
   45.80       18.34    
   45.90       18.10    
   46.00       17.84    
   46.10       17.56    
   46.20       17.25    
   46.30       16.92    
   46.40       16.57    
   46.50       16.21    
   46.60       15.83    
   46.70       15.43    
   46.80       15.02    
   46.90       14.60    
   47.00       14.16    
   47.10       13.72    
   47.20       13.27    
   47.30       12.81    
   47.40       12.35    
   47.50       11.88    
   47.60       11.41    
   47.70       10.94    
   47.80       10.47    
   47.90       9.998    
   48.00       9.532    
   48.10       9.069    
   48.20       8.613    
   48.30       8.162    
   48.40       7.720    
   48.50       7.285    
   48.60       6.861    
   48.70       6.447    
   48.80       6.045    
   48.90       5.655    
   49.00       5.278    
   49.10       4.914    
   49.20       4.566    
   49.30       4.232    
   49.40       3.914    
   49.50       3.612    
   49.60       3.327    
   49.70       3.058    
   49.80       2.806    
   49.90       2.572    
   50.00       2.355    
   50.10       2.156    
   50.20       1.974    
   50.30       1.810    
   50.40       1.663    
   50.50       1.534    
   50.60       1.421    
   50.70       1.326    
   50.80       1.247    
   50.90       1.184    
   51.00       1.137    
   51.10       1.106    
   51.20       1.089    
   51.30       1.087    
   51.40       1.099    
   51.50       1.125    
   51.60       1.163    
   51.70       1.213    
   51.80       1.275    
   51.90       1.347    
   52.00       1.430    
   52.10       1.522    
   52.20       1.623    
   52.30       1.731    
   52.40       1.847    
   52.50       1.970    
   52.60       2.098    
   52.70       2.231    
   52.80       2.369    
   52.90       2.510    
   53.00       2.654    
   53.10       2.800    
   53.20       2.947    
   53.30       3.095    
   53.40       3.244    
   53.50       3.391    
   53.60       3.538    
   53.70       3.682    
   53.80       3.824    
   53.90       3.964    
   54.00       4.099    
   54.10       4.231    
   54.20       4.358    
   54.30       4.480    
   54.40       4.596    
   54.50       4.707    
   54.60       4.812    
   54.70       4.910    
   54.80       5.001    
   54.90       5.086    
   55.00       5.163    
   55.10       5.232    
   55.20       5.294    
   55.30       5.347    
   55.40       5.393    
   55.50       5.431    
   55.60       5.461    
   55.70       5.482    
   55.80       5.496    
   55.90       5.501    
   56.00       5.499    
   56.10       5.488    
   56.20       5.470    
   56.30       5.444    
   56.40       5.410    
   56.50       5.369    
   56.60       5.321    
   56.70       5.267    
   56.80       5.205    
   56.90       5.137    
   57.00       5.063    
   57.10       4.983    
   57.20       4.898    
   57.30       4.807    
   57.40       4.711    
   57.50       4.611    
   57.60       4.507    
   57.70       4.399    
   57.80       4.287    
   57.90       4.172    
   58.00       4.054    
   58.10       3.934    
   58.20       3.812    
   58.30       3.688    
   58.40       3.563    
   58.50       3.437    
   58.60       3.310    
   58.70       3.183    
   58.80       3.055    
   58.90       2.928    
   59.00       2.802    
   59.10       2.677    
   59.20       2.553    
   59.30       2.431    
   59.40       2.310    
   59.50       2.192    
   59.60       2.075    
   59.70       1.962    
   59.80       1.851    
   59.90       1.743    
   60.00       1.639    
   60.10       1.538    
   60.20       1.440    
   60.30       1.346    
   60.40       1.256    
   60.50       1.170    
   60.60       1.088    
   60.70       1.011    
   60.80      0.9370    
   60.90      0.8676    
   61.00      0.8026    
   61.10      0.7419    
   61.20      0.6856    
   61.30      0.6337    
   61.40      0.5861    
   61.50      0.5428    
   61.60      0.5039    
   61.70      0.4691    
   61.80      0.4385    
   61.90      0.4120    
   62.00      0.3895    
   62.10      0.3709    
   62.20      0.3561    
   62.30      0.3451    
   62.40      0.3375    
   62.50      0.3334    
   62.60      0.3326    
   62.70      0.3350    
   62.80      0.3404    
   62.90      0.3486    
   63.00      0.3595    
   63.10      0.3729    
   63.20      0.3887    
   63.30      0.4067    
   63.40      0.4267    
   63.50      0.4485    
   63.60      0.4721    
   63.70      0.4971    
   63.80      0.5235    
   63.90      0.5511    
   64.00      0.5797    
   64.10      0.6091    
   64.20      0.6391    
   64.30      0.6697    
   64.40      0.7006    
   64.50      0.7318    
   64.60      0.7630    
   64.70      0.7941    
   64.80      0.8249    
   64.90      0.8555    
   65.00      0.8855    
   65.10      0.9149    
   65.20      0.9436    
   65.30      0.9715    
   65.40      0.9985    
   65.50       1.024    
   65.60       1.049    
   65.70       1.073    
   65.80       1.095    
   65.90       1.116    
   66.00       1.136    
   66.10       1.154    
   66.20       1.171    
   66.30       1.187    
   66.40       1.200    
   66.50       1.213    
   66.60       1.223    
   66.70       1.232    
   66.80       1.240    
   66.90       1.246    
   67.00       1.250    
   67.10       1.253    
   67.20       1.254    
   67.30       1.254    
   67.40       1.253    
   67.50       1.250    
   67.60       1.245    
   67.70       1.239    
   67.80       1.232    
   67.90       1.224    
   68.00       1.215    
   68.10       1.204    
   68.20       1.193    
   68.30       1.180    
   68.40       1.167    
   68.50       1.153    
   68.60       1.138    
   68.70       1.122    
   68.80       1.106    
   68.90       1.089    
   69.00       1.072    
   69.10       1.054    
   69.20       1.036    
   69.30       1.018    
   69.40       1.000    
   69.50      0.9820    
   69.60      0.9638    
   69.70      0.9456    
   69.80      0.9276    
   69.90      0.9099    
   70.00      0.8924    
   70.10      0.8753    
   70.20      0.8586    
   70.30      0.8423    
   70.40      0.8266    
   70.50      0.8115    
   70.60      0.7970    
   70.70      0.7831    
   70.80      0.7700    
   70.90      0.7577    
   71.00      0.7461    
   71.10      0.7353    
   71.20      0.7255    
   71.30      0.7164    
   71.40      0.7083    
   71.50      0.7011    
   71.60      0.6948    
   71.70      0.6895    
   71.80      0.6851    
   71.90      0.6816    
   72.00      0.6791    
   72.10      0.6776    
   72.20      0.6770    
   72.30      0.6773    
   72.40      0.6785    
   72.50      0.6806    
   72.60      0.6836    
   72.70      0.6874    
   72.80      0.6921    
   72.90      0.6976    
   73.00      0.7038    
   73.10      0.7108    
   73.20      0.7185    
   73.30      0.7269    
   73.40      0.7359    
   73.50      0.7454    
   73.60      0.7556    
   73.70      0.7662    
   73.80      0.7773    
   73.90      0.7888    
   74.00      0.8007    
   74.10      0.8129    
   74.20      0.8254    
   74.30      0.8381    
   74.40      0.8510    
   74.50      0.8640    
   74.60      0.8772    
   74.70      0.8904    
   74.80      0.9035    
   74.90      0.9167    
   75.00      0.9297    
   75.10      0.9426    
   75.20      0.9553    
   75.30      0.9678    
   75.40      0.9800    
   75.50      0.9920    
   75.60       1.004    
   75.70       1.015    
   75.80       1.026    
   75.90       1.036    
   76.00       1.046    
   76.10       1.055    
   76.20       1.064    
   76.30       1.072    
   76.40       1.080    
   76.50       1.087    
   76.60       1.094    
   76.70       1.099    
   76.80       1.105    
   76.90       1.109    
   77.00       1.113    
   77.10       1.116    
   77.20       1.118    
   77.30       1.120    
   77.40       1.121    
   77.50       1.121    
   77.60       1.121    
   77.70       1.120    
   77.80       1.118    
   77.90       1.116    
   78.00       1.112    
   78.10       1.109    
   78.20       1.104    
   78.30       1.099    
   78.40       1.093    
   78.50       1.087    
   78.60       1.080    
   78.70       1.072    
   78.80       1.064    
   78.90       1.055    
   79.00       1.046    
   79.10       1.036    
   79.20       1.026    
   79.30       1.016    
   79.40       1.005    
   79.50      0.9933    
   79.60      0.9816    
   79.70      0.9695    
   79.80      0.9571    
   79.90      0.9445    
   80.00      0.9316    
   80.10      0.9185    
   80.20      0.9052    
   80.30      0.8918    
   80.40      0.8782    
   80.50      0.8645    
   80.60      0.8508    
   80.70      0.8370    
   80.80      0.8231    
   80.90      0.8093    
   81.00      0.7955    
   81.10      0.7818    
   81.20      0.7681    
   81.30      0.7546    
   81.40      0.7411    
   81.50      0.7278    
   81.60      0.7147    
   81.70      0.7018    
   81.80      0.6891    
   81.90      0.6766    
   82.00      0.6643    
   82.10      0.6523    
   82.20      0.6406    
   82.30      0.6291    
   82.40      0.6179    
   82.50      0.6071    
   82.60      0.5966    
   82.70      0.5863    
   82.80      0.5765    
   82.90      0.5669    
   83.00      0.5577    
   83.10      0.5489    
   83.20      0.5404    
   83.30      0.5322    
   83.40      0.5244    
   83.50      0.5170    
   83.60      0.5099    
   83.70      0.5032    
   83.80      0.4968    
   83.90      0.4907    
   84.00      0.4850    
   84.10      0.4796    
   84.20      0.4745    
   84.30      0.4697    
   84.40      0.4653    
   84.50      0.4611    
   84.60      0.4573    
   84.70      0.4537    
   84.80      0.4503    
   84.90      0.4473    
   85.00      0.4444    
   85.10      0.4418    
   85.20      0.4394    
   85.30      0.4372    
   85.40      0.4352    
   85.50      0.4334    
   85.60      0.4317    
   85.70      0.4302    
   85.80      0.4288    
   85.90      0.4275    
   86.00      0.4263    
   86.10      0.4252    
   86.20      0.4242    
   86.30      0.4233    
   86.40      0.4224    
   86.50      0.4215    
   86.60      0.4206    
   86.70      0.4198    
   86.80      0.4189    
   86.90      0.4180    
   87.00      0.4171    
   87.10      0.4162    
   87.20      0.4152    
   87.30      0.4141    
   87.40      0.4130    
   87.50      0.4117    
   87.60      0.4104    
   87.70      0.4090    
   87.80      0.4074    
   87.90      0.4058    
   88.00      0.4040    
   88.10      0.4021    
   88.20      0.4000    
   88.30      0.3978    
   88.40      0.3955    
   88.50      0.3930    
   88.60      0.3903    
   88.70      0.3875    
   88.80      0.3845    
   88.90      0.3814    
   89.00      0.3781    
   89.10      0.3747    
   89.20      0.3710    
   89.30      0.3673    
   89.40      0.3633    
   89.50      0.3592    
   89.60      0.3550    
   89.70      0.3506    
   89.80      0.3460    
   89.90      0.3413    
   90.00      0.3365    
   90.10      0.3316    
   90.20      0.3265    
   90.30      0.3212    
   90.40      0.3159    
   90.50      0.3105    
   90.60      0.3049    
   90.70      0.2993    
   90.80      0.2936    
   90.90      0.2878    
   91.00      0.2819    
   91.10      0.2759    
   91.20      0.2699    
   91.30      0.2639    
   91.40      0.2578    
   91.50      0.2517    
   91.60      0.2455    
   91.70      0.2394    
   91.80      0.2332    
   91.90      0.2271    
   92.00      0.2210    
   92.10      0.2149    
   92.20      0.2088    
   92.30      0.2027    
   92.40      0.1967    
   92.50      0.1908    
   92.60      0.1849    
   92.70      0.1792    
   92.80      0.1734    
   92.90      0.1678    
   93.00      0.1623    
   93.10      0.1569    
   93.20      0.1515    
   93.30      0.1463    
   93.40      0.1413    
   93.50      0.1363    
   93.60      0.1315    
   93.70      0.1268    
   93.80      0.1223    
   93.90      0.1179    
   94.00      0.1137    
   94.10      0.1096    
   94.20      0.1057    
   94.30      0.1019    
   94.40      0.9834E-01
   94.50      0.9492E-01
   94.60      0.9168E-01
   94.70      0.8861E-01
   94.80      0.8571E-01
   94.90      0.8298E-01
   95.00      0.8043E-01
   95.10      0.7806E-01
   95.20      0.7586E-01
   95.30      0.7384E-01
   95.40      0.7199E-01
   95.50      0.7032E-01
   95.60      0.6881E-01
   95.70      0.6748E-01
   95.80      0.6631E-01
   95.90      0.6531E-01
   96.00      0.6446E-01
   96.10      0.6378E-01
   96.20      0.6326E-01
   96.30      0.6288E-01
   96.40      0.6266E-01
   96.50      0.6258E-01
   96.60      0.6264E-01
   96.70      0.6283E-01
   96.80      0.6316E-01
   96.90      0.6361E-01
   97.00      0.6419E-01
   97.10      0.6487E-01
   97.20      0.6567E-01
   97.30      0.6658E-01
   97.40      0.6758E-01
   97.50      0.6868E-01
   97.60      0.6987E-01
   97.70      0.7114E-01
   97.80      0.7249E-01
   97.90      0.7390E-01
   98.00      0.7538E-01
   98.10      0.7692E-01
   98.20      0.7852E-01
   98.30      0.8016E-01
   98.40      0.8184E-01
   98.50      0.8356E-01
   98.60      0.8530E-01
   98.70      0.8707E-01
   98.80      0.8886E-01
   98.90      0.9067E-01
   99.00      0.9247E-01
   99.10      0.9429E-01
   99.20      0.9609E-01
   99.30      0.9789E-01
   99.40      0.9968E-01
   99.50      0.1014    
   99.60      0.1032    
   99.70      0.1049    
   99.80      0.1066    
   99.90      0.1083    
   100.0      0.1099    
   100.1      0.1114    
   100.2      0.1130    
   100.3      0.1144    
   100.4      0.1159    
   100.5      0.1172    
   100.6      0.1185    
   100.7      0.1198    
   100.8      0.1210    
   100.9      0.1221    
   101.0      0.1231    
   101.1      0.1241    
   101.2      0.1250    
   101.3      0.1259    
   101.4      0.1266    
   101.5      0.1273    
   101.6      0.1279    
   101.7      0.1285    
   101.8      0.1290    
   101.9      0.1294    
   102.0      0.1297    
   102.1      0.1300    
   102.2      0.1301    
   102.3      0.1302    
   102.4      0.1303    
   102.5      0.1303    
   102.6      0.1302    
   102.7      0.1300    
   102.8      0.1298    
   102.9      0.1295    
   103.0      0.1291    
   103.1      0.1287    
   103.2      0.1283    
   103.3      0.1277    
   103.4      0.1272    
   103.5      0.1266    
   103.6      0.1259    
   103.7      0.1252    
   103.8      0.1244    
   103.9      0.1236    
   104.0      0.1228    
   104.1      0.1220    
   104.2      0.1211    
   104.3      0.1202    
   104.4      0.1193    
   104.5      0.1183    
   104.6      0.1173    
   104.7      0.1164    
   104.8      0.1154    
   104.9      0.1144    
   105.0      0.1134    
   105.1      0.1124    
   105.2      0.1114    
   105.3      0.1104    
   105.4      0.1094    
   105.5      0.1084    
   105.6      0.1075    
   105.7      0.1065    
   105.8      0.1056    
   105.9      0.1047    
   106.0      0.1038    
   106.1      0.1030    
   106.2      0.1022    
   106.3      0.1014    
   106.4      0.1006    
   106.5      0.9990E-01
   106.6      0.9922E-01
   106.7      0.9857E-01
   106.8      0.9797E-01
   106.9      0.9740E-01
   107.0      0.9688E-01
   107.1      0.9641E-01
   107.2      0.9598E-01
   107.3      0.9559E-01
   107.4      0.9526E-01
   107.5      0.9497E-01
   107.6      0.9472E-01
   107.7      0.9453E-01
   107.8      0.9439E-01
   107.9      0.9429E-01
   108.0      0.9424E-01
   108.1      0.9425E-01
   108.2      0.9430E-01
   108.3      0.9440E-01
   108.4      0.9454E-01
   108.5      0.9473E-01
   108.6      0.9497E-01
   108.7      0.9525E-01
   108.8      0.9558E-01
   108.9      0.9595E-01
   109.0      0.9636E-01
   109.1      0.9681E-01
   109.2      0.9730E-01
   109.3      0.9783E-01
   109.4      0.9839E-01
   109.5      0.9898E-01
   109.6      0.9961E-01
   109.7      0.1003    
   109.8      0.1010    
   109.9      0.1017    
   110.0      0.1024    
   110.1      0.1031    
   110.2      0.1039    
   110.3      0.1047    
   110.4      0.1055    
   110.5      0.1063    
   110.6      0.1072    
   110.7      0.1080    
   110.8      0.1088    
   110.9      0.1097    
   111.0      0.1105    
   111.1      0.1113    
   111.2      0.1122    
   111.3      0.1130    
   111.4      0.1138    
   111.5      0.1146    
   111.6      0.1154    
   111.7      0.1162    
   111.8      0.1169    
   111.9      0.1177    
   112.0      0.1184    
   112.1      0.1191    
   112.2      0.1197    
   112.3      0.1203    
   112.4      0.1209    
   112.5      0.1215    
   112.6      0.1220    
   112.7      0.1225    
   112.8      0.1230    
   112.9      0.1234    
   113.0      0.1238    
   113.1      0.1241    
   113.2      0.1244    
   113.3      0.1246    
   113.4      0.1248    
   113.5      0.1250    
   113.6      0.1251    
   113.7      0.1252    
   113.8      0.1252    
   113.9      0.1251    
   114.0      0.1250    
   114.1      0.1249    
   114.2      0.1247    
   114.3      0.1245    
   114.4      0.1242    
   114.5      0.1239    
   114.6      0.1235    
   114.7      0.1231    
   114.8      0.1226    
   114.9      0.1221    
   115.0      0.1215    
   115.1      0.1209    
   115.2      0.1202    
   115.3      0.1195    
   115.4      0.1188    
   115.5      0.1180    
   115.6      0.1171    
   115.7      0.1163    
   115.8      0.1154    
   115.9      0.1144    
   116.0      0.1134    
   116.1      0.1124    
   116.2      0.1114    
   116.3      0.1103    
   116.4      0.1092    
   116.5      0.1080    
   116.6      0.1069    
   116.7      0.1057    
   116.8      0.1045    
   116.9      0.1033    
   117.0      0.1020    
   117.1      0.1008    
   117.2      0.9951E-01
   117.3      0.9823E-01
   117.4      0.9693E-01
   117.5      0.9563E-01
   117.6      0.9432E-01
   117.7      0.9300E-01
   117.8      0.9168E-01
   117.9      0.9036E-01
   118.0      0.8904E-01
   118.1      0.8772E-01
   118.2      0.8641E-01
   118.3      0.8510E-01
   118.4      0.8380E-01
   118.5      0.8250E-01
   118.6      0.8122E-01
   118.7      0.7994E-01
   118.8      0.7868E-01
   118.9      0.7744E-01
   119.0      0.7621E-01
   119.1      0.7499E-01
   119.2      0.7379E-01
   119.3      0.7261E-01
   119.4      0.7146E-01
   119.5      0.7032E-01
   119.6      0.6920E-01
   119.7      0.6811E-01
   119.8      0.6703E-01
   119.9      0.6599E-01
   120.0      0.6496E-01
   120.1      0.6396E-01
   120.2      0.6299E-01
   120.3      0.6204E-01
   120.4      0.6111E-01
   120.5      0.6022E-01
   120.6      0.5935E-01
   120.7      0.5850E-01
   120.8      0.5768E-01
   120.9      0.5688E-01
   121.0      0.5612E-01
   121.1      0.5537E-01
   121.2      0.5465E-01
   121.3      0.5396E-01
   121.4      0.5329E-01
   121.5      0.5264E-01
   121.6      0.5202E-01
   121.7      0.5142E-01
   121.8      0.5085E-01
   121.9      0.5029E-01
   122.0      0.4975E-01
   122.1      0.4924E-01
   122.2      0.4874E-01
   122.3      0.4827E-01
   122.4      0.4781E-01
   122.5      0.4736E-01
   122.6      0.4694E-01
   122.7      0.4652E-01
   122.8      0.4613E-01
   122.9      0.4574E-01
   123.0      0.4537E-01
   123.1      0.4501E-01
   123.2      0.4466E-01
   123.3      0.4431E-01
   123.4      0.4398E-01
   123.5      0.4366E-01
   123.6      0.4334E-01
   123.7      0.4302E-01
   123.8      0.4271E-01
   123.9      0.4241E-01
   124.0      0.4211E-01
   124.1      0.4181E-01
   124.2      0.4151E-01
   124.3      0.4122E-01
   124.4      0.4092E-01
   124.5      0.4063E-01
   124.6      0.4033E-01
   124.7      0.4003E-01
   124.8      0.3973E-01
   124.9      0.3942E-01
   125.0      0.3912E-01
   125.1      0.3881E-01
   125.2      0.3849E-01
   125.3      0.3817E-01
   125.4      0.3785E-01
   125.5      0.3752E-01
   125.6      0.3719E-01
   125.7      0.3685E-01
   125.8      0.3650E-01
   125.9      0.3615E-01
   126.0      0.3580E-01
   126.1      0.3544E-01
   126.2      0.3507E-01
   126.3      0.3470E-01
   126.4      0.3432E-01
   126.5      0.3394E-01
   126.6      0.3356E-01
   126.7      0.3317E-01
   126.8      0.3278E-01
   126.9      0.3238E-01
   127.0      0.3198E-01
   127.1      0.3158E-01
   127.2      0.3117E-01
   127.3      0.3076E-01
   127.4      0.3036E-01
   127.5      0.2995E-01
   127.6      0.2954E-01
   127.7      0.2913E-01
   127.8      0.2872E-01
   127.9      0.2831E-01
   128.0      0.2791E-01
   128.1      0.2751E-01
   128.2      0.2711E-01
   128.3      0.2671E-01
   128.4      0.2632E-01
   128.5      0.2593E-01
   128.6      0.2555E-01
   128.7      0.2518E-01
   128.8      0.2481E-01
   128.9      0.2445E-01
   129.0      0.2409E-01
   129.1      0.2375E-01
   129.2      0.2341E-01
   129.3      0.2309E-01
   129.4      0.2277E-01
   129.5      0.2246E-01
   129.6      0.2216E-01
   129.7      0.2188E-01
   129.8      0.2160E-01
   129.9      0.2134E-01
   130.0      0.2108E-01
   130.1      0.2084E-01
   130.2      0.2061E-01
   130.3      0.2040E-01
   130.4      0.2019E-01
   130.5      0.2000E-01
   130.6      0.1982E-01
   130.7      0.1966E-01
   130.8      0.1950E-01
   130.9      0.1936E-01
   131.0      0.1923E-01
   131.1      0.1911E-01
   131.2      0.1901E-01
   131.3      0.1891E-01
   131.4      0.1883E-01
   131.5      0.1876E-01
   131.6      0.1869E-01
   131.7      0.1864E-01
   131.8      0.1860E-01
   131.9      0.1857E-01
   132.0      0.1855E-01
   132.1      0.1854E-01
   132.2      0.1853E-01
   132.3      0.1853E-01
   132.4      0.1854E-01
   132.5      0.1856E-01
   132.6      0.1858E-01
   132.7      0.1861E-01
   132.8      0.1864E-01
   132.9      0.1868E-01
   133.0      0.1872E-01
   133.1      0.1877E-01
   133.2      0.1881E-01
   133.3      0.1886E-01
   133.4      0.1891E-01
   133.5      0.1896E-01
   133.6      0.1901E-01
   133.7      0.1906E-01
   133.8      0.1911E-01
   133.9      0.1916E-01
   134.0      0.1921E-01
   134.1      0.1925E-01
   134.2      0.1929E-01
   134.3      0.1933E-01
   134.4      0.1936E-01
   134.5      0.1939E-01
   134.6      0.1941E-01
   134.7      0.1943E-01
   134.8      0.1945E-01
   134.9      0.1945E-01
   135.0      0.1945E-01
   135.1      0.1945E-01
   135.2      0.1944E-01
   135.3      0.1942E-01
   135.4      0.1940E-01
   135.5      0.1937E-01
   135.6      0.1933E-01
   135.7      0.1929E-01
   135.8      0.1924E-01
   135.9      0.1918E-01
   136.0      0.1912E-01
   136.1      0.1905E-01
   136.2      0.1898E-01
   136.3      0.1890E-01
   136.4      0.1881E-01
   136.5      0.1872E-01
   136.6      0.1862E-01
   136.7      0.1852E-01
   136.8      0.1842E-01
   136.9      0.1831E-01
   137.0      0.1820E-01
   137.1      0.1808E-01
   137.2      0.1797E-01
   137.3      0.1785E-01
   137.4      0.1773E-01
   137.5      0.1762E-01
   137.6      0.1750E-01
   137.7      0.1738E-01
   137.8      0.1726E-01
   137.9      0.1715E-01
   138.0      0.1704E-01
   138.1      0.1693E-01
   138.2      0.1683E-01
   138.3      0.1673E-01
   138.4      0.1664E-01
   138.5      0.1655E-01
   138.6      0.1647E-01
   138.7      0.1639E-01
   138.8      0.1632E-01
   138.9      0.1627E-01
   139.0      0.1622E-01
   139.1      0.1618E-01
   139.2      0.1614E-01
   139.3      0.1612E-01
   139.4      0.1611E-01
   139.5      0.1612E-01
   139.6      0.1613E-01
   139.7      0.1615E-01
   139.8      0.1619E-01
   139.9      0.1624E-01
   140.0      0.1630E-01
   140.1      0.1638E-01
   140.2      0.1646E-01
   140.3      0.1656E-01
   140.4      0.1668E-01
   140.5      0.1680E-01
   140.6      0.1694E-01
   140.7      0.1710E-01
   140.8      0.1726E-01
   140.9      0.1744E-01
   141.0      0.1763E-01
   141.1      0.1783E-01
   141.2      0.1804E-01
   141.3      0.1827E-01
   141.4      0.1851E-01
   141.5      0.1875E-01
   141.6      0.1901E-01
   141.7      0.1927E-01
   141.8      0.1955E-01
   141.9      0.1983E-01
   142.0      0.2012E-01
   142.1      0.2042E-01
   142.2      0.2072E-01
   142.3      0.2103E-01
   142.4      0.2134E-01
   142.5      0.2166E-01
   142.6      0.2197E-01
   142.7      0.2229E-01
   142.8      0.2262E-01
   142.9      0.2294E-01
   143.0      0.2326E-01
   143.1      0.2358E-01
   143.2      0.2389E-01
   143.3      0.2421E-01
   143.4      0.2451E-01
   143.5      0.2482E-01
   143.6      0.2511E-01
   143.7      0.2540E-01
   143.8      0.2568E-01
   143.9      0.2595E-01
   144.0      0.2621E-01
   144.1      0.2646E-01
   144.2      0.2670E-01
   144.3      0.2693E-01
   144.4      0.2714E-01
   144.5      0.2734E-01
   144.6      0.2752E-01
   144.7      0.2769E-01
   144.8      0.2784E-01
   144.9      0.2798E-01
   145.0      0.2810E-01
   145.1      0.2820E-01
   145.2      0.2828E-01
   145.3      0.2835E-01
   145.4      0.2839E-01
   145.5      0.2842E-01
   145.6      0.2843E-01
   145.7      0.2842E-01
   145.8      0.2839E-01
   145.9      0.2834E-01
   146.0      0.2827E-01
   146.1      0.2818E-01
   146.2      0.2807E-01
   146.3      0.2794E-01
   146.4      0.2780E-01
   146.5      0.2763E-01
   146.6      0.2745E-01
   146.7      0.2725E-01
   146.8      0.2703E-01
   146.9      0.2680E-01
   147.0      0.2655E-01
   147.1      0.2629E-01
   147.2      0.2601E-01
   147.3      0.2571E-01
   147.4      0.2541E-01
   147.5      0.2509E-01
   147.6      0.2476E-01
   147.7      0.2442E-01
   147.8      0.2408E-01
   147.9      0.2372E-01
   148.0      0.2336E-01
   148.1      0.2299E-01
   148.2      0.2261E-01
   148.3      0.2224E-01
   148.4      0.2186E-01
   148.5      0.2147E-01
   148.6      0.2109E-01
   148.7      0.2071E-01
   148.8      0.2033E-01
   148.9      0.1995E-01
   149.0      0.1958E-01
   149.1      0.1921E-01
   149.2      0.1885E-01
   149.3      0.1850E-01
   149.4      0.1815E-01
   149.5      0.1782E-01
   149.6      0.1749E-01
   149.7      0.1718E-01
   149.8      0.1688E-01
   149.9      0.1659E-01
   150.0      0.1632E-01
   150.1      0.1607E-01
   150.2      0.1582E-01
   150.3      0.1560E-01
   150.4      0.1539E-01
   150.5      0.1521E-01
   150.6      0.1504E-01
   150.7      0.1489E-01
   150.8      0.1476E-01
   150.9      0.1464E-01
   151.0      0.1455E-01
   151.1      0.1448E-01
   151.2      0.1443E-01
   151.3      0.1441E-01
   151.4      0.1440E-01
   151.5      0.1441E-01
   151.6      0.1444E-01
   151.7      0.1450E-01
   151.8      0.1457E-01
   151.9      0.1466E-01
   152.0      0.1478E-01
   152.1      0.1491E-01
   152.2      0.1506E-01
   152.3      0.1522E-01
   152.4      0.1541E-01
   152.5      0.1561E-01
   152.6      0.1583E-01
   152.7      0.1606E-01
   152.8      0.1630E-01
   152.9      0.1656E-01
   153.0      0.1683E-01
   153.1      0.1711E-01
   153.2      0.1740E-01
   153.3      0.1769E-01
   153.4      0.1800E-01
   153.5      0.1831E-01
   153.6      0.1862E-01
   153.7      0.1894E-01
   153.8      0.1926E-01
   153.9      0.1958E-01
   154.0      0.1990E-01
   154.1      0.2022E-01
   154.2      0.2054E-01
   154.3      0.2085E-01
   154.4      0.2116E-01
   154.5      0.2145E-01
   154.6      0.2174E-01
   154.7      0.2202E-01
   154.8      0.2229E-01
   154.9      0.2255E-01
   155.0      0.2280E-01
   155.1      0.2303E-01
   155.2      0.2324E-01
   155.3      0.2344E-01
   155.4      0.2362E-01
   155.5      0.2378E-01
   155.6      0.2392E-01
   155.7      0.2404E-01
   155.8      0.2414E-01
   155.9      0.2422E-01
   156.0      0.2428E-01
   156.1      0.2431E-01
   156.2      0.2432E-01
   156.3      0.2431E-01
   156.4      0.2427E-01
   156.5      0.2421E-01
   156.6      0.2413E-01
   156.7      0.2402E-01
   156.8      0.2388E-01
   156.9      0.2372E-01
   157.0      0.2354E-01
   157.1      0.2333E-01
   157.2      0.2310E-01
   157.3      0.2284E-01
   157.4      0.2257E-01
   157.5      0.2227E-01
   157.6      0.2195E-01
   157.7      0.2161E-01
   157.8      0.2125E-01
   157.9      0.2087E-01
   158.0      0.2047E-01
   158.1      0.2005E-01
   158.2      0.1962E-01
   158.3      0.1918E-01
   158.4      0.1872E-01
   158.5      0.1825E-01
   158.6      0.1777E-01
   158.7      0.1728E-01
   158.8      0.1678E-01
   158.9      0.1628E-01
   159.0      0.1577E-01
   159.1      0.1526E-01
   159.2      0.1474E-01
   159.3      0.1423E-01
   159.4      0.1372E-01
   159.5      0.1321E-01
   159.6      0.1271E-01
   159.7      0.1221E-01
   159.8      0.1172E-01
   159.9      0.1124E-01
   160.0      0.1077E-01
   160.1      0.1031E-01
   160.2      0.9870E-02
   160.3      0.9443E-02
   160.4      0.9033E-02
   160.5      0.8642E-02
   160.6      0.8270E-02
   160.7      0.7919E-02
   160.8      0.7591E-02
   160.9      0.7285E-02
   161.0      0.7005E-02
   161.1      0.6749E-02
   161.2      0.6520E-02
   161.3      0.6319E-02
   161.4      0.6145E-02
   161.5      0.5999E-02
   161.6      0.5883E-02
   161.7      0.5797E-02
   161.8      0.5741E-02
   161.9      0.5715E-02
   162.0      0.5719E-02
   162.1      0.5754E-02
   162.2      0.5820E-02
   162.3      0.5916E-02
   162.4      0.6042E-02
   162.5      0.6197E-02
   162.6      0.6383E-02
   162.7      0.6596E-02
   162.8      0.6839E-02
   162.9      0.7108E-02
   163.0      0.7404E-02
   163.1      0.7725E-02
   163.2      0.8071E-02
   163.3      0.8440E-02
   163.4      0.8831E-02
   163.5      0.9243E-02
   163.6      0.9674E-02
   163.7      0.1012E-01
   163.8      0.1059E-01
   163.9      0.1107E-01
   164.0      0.1156E-01
   164.1      0.1206E-01
   164.2      0.1258E-01
   164.3      0.1310E-01
   164.4      0.1362E-01
   164.5      0.1415E-01
   164.6      0.1468E-01
   164.7      0.1522E-01
   164.8      0.1574E-01
   164.9      0.1627E-01
   165.0      0.1678E-01
   165.1      0.1729E-01
   165.2      0.1779E-01
   165.3      0.1828E-01
   165.4      0.1875E-01
   165.5      0.1920E-01
   165.6      0.1964E-01
   165.7      0.2005E-01
   165.8      0.2045E-01
   165.9      0.2082E-01
   166.0      0.2116E-01
   166.1      0.2148E-01
   166.2      0.2176E-01
   166.3      0.2202E-01
   166.4      0.2225E-01
   166.5      0.2244E-01
   166.6      0.2260E-01
   166.7      0.2273E-01
   166.8      0.2282E-01
   166.9      0.2287E-01
   167.0      0.2288E-01
   167.1      0.2286E-01
   167.2      0.2280E-01
   167.3      0.2270E-01
   167.4      0.2256E-01
   167.5      0.2239E-01
   167.6      0.2217E-01
   167.7      0.2192E-01
   167.8      0.2163E-01
   167.9      0.2130E-01
   168.0      0.2093E-01
   168.1      0.2053E-01
   168.2      0.2010E-01
   168.3      0.1963E-01
   168.4      0.1913E-01
   168.5      0.1860E-01
   168.6      0.1804E-01
   168.7      0.1745E-01
   168.8      0.1684E-01
   168.9      0.1620E-01
   169.0      0.1554E-01
   169.1      0.1487E-01
   169.2      0.1417E-01
   169.3      0.1347E-01
   169.4      0.1275E-01
   169.5      0.1203E-01
   169.6      0.1129E-01
   169.7      0.1056E-01
   169.8      0.9825E-02
   169.9      0.9095E-02
   170.0      0.8370E-02
   170.1      0.7656E-02
   170.2      0.6954E-02
   170.3      0.6269E-02
   170.4      0.5603E-02
   170.5      0.4960E-02
   170.6      0.4343E-02
   170.7      0.3757E-02
   170.8      0.3203E-02
   170.9      0.2685E-02
   171.0      0.2208E-02
   171.1      0.1773E-02
   171.2      0.1385E-02
   171.3      0.1046E-02
   171.4      0.7602E-03
   171.5      0.5300E-03
   171.6      0.3586E-03
   171.7      0.2488E-03
   171.8      0.2035E-03
   171.9      0.2254E-03
   172.0      0.3171E-03
   172.1      0.4809E-03
   172.2      0.7193E-03
   172.3      0.1034E-02
   172.4      0.1428E-02
   172.5      0.1903E-02
   172.6      0.2459E-02
   172.7      0.3100E-02
   172.8      0.3826E-02
   172.9      0.4638E-02
   173.0      0.5537E-02
   173.1      0.6524E-02
   173.2      0.7600E-02
   173.3      0.8765E-02
   173.4      0.1002E-01
   173.5      0.1136E-01
   173.6      0.1279E-01
   173.7      0.1432E-01
   173.8      0.1592E-01
   173.9      0.1762E-01
   174.0      0.1940E-01
   174.1      0.2126E-01
   174.2      0.2321E-01
   174.3      0.2524E-01
   174.4      0.2735E-01
   174.5      0.2953E-01
   174.6      0.3179E-01
   174.7      0.3412E-01
   174.8      0.3652E-01
   174.9      0.3899E-01
   175.0      0.4151E-01
   175.1      0.4410E-01
   175.2      0.4674E-01
   175.3      0.4944E-01
   175.4      0.5218E-01
   175.5      0.5497E-01
   175.6      0.5779E-01
   175.7      0.6066E-01
   175.8      0.6355E-01
   175.9      0.6647E-01
   176.0      0.6941E-01
   176.1      0.7237E-01
   176.2      0.7534E-01
   176.3      0.7831E-01
   176.4      0.8129E-01
   176.5      0.8427E-01
   176.6      0.8724E-01
   176.7      0.9019E-01
   176.8      0.9313E-01
   176.9      0.9604E-01
   177.0      0.9892E-01
   177.1      0.1018    
   177.2      0.1046    
   177.3      0.1073    
   177.4      0.1101    
   177.5      0.1127    
   177.6      0.1153    
   177.7      0.1179    
   177.8      0.1203    
   177.9      0.1227    
   178.0      0.1250    
   178.1      0.1273    
   178.2      0.1294    
   178.3      0.1315    
   178.4      0.1334    
   178.5      0.1353    
   178.6      0.1370    
   178.7      0.1387    
   178.8      0.1402    
   178.9      0.1417    
   179.0      0.1430    
   179.1      0.1442    
   179.2      0.1452    
   179.3      0.1462    
   179.4      0.1470    
   179.5      0.1477    
   179.6      0.1483    
   179.7      0.1488    
   179.8      0.1491    
   179.9      0.1493    
   180.0      0.1494    
 END
